# ISAACJ_mod
# energy
# ESO VLT ISAAC J (ESO web pages - http://www.eso.org/sci/facilities/paranal/decommissioned/isaac/inst/isaac_img.html) - 2365 righe eliminate agli estremi
# lambda	transmission
       10700.000     0.014500000
       10701.000     0.014000000
       10702.000    0.0096000000
       10703.000    0.0041000000
       10704.000   0.00050000000
       10705.000    0.0014000000
       10707.000    0.0054000000
       10708.000     0.010000000
       10709.000     0.013000000
       10710.000     0.013000000
       10711.000     0.011300000
       10712.000    0.0097000000
       10714.000    0.0084000000
       10715.000    0.0074000000
       10716.000    0.0057000000
       10717.000    0.0034000000
       10718.000    0.0021000000
       10719.000    0.0030000000
       10720.000    0.0069000000
       10722.000     0.012300000
       10723.000     0.016300000
       10724.000     0.016900000
       10725.000     0.013900000
       10726.000    0.0088000000
       10727.000    0.0035000000
       10728.000   0.00030000000
       10730.000   0.00050000000
       10731.000    0.0031000000
       10732.000    0.0058000000
       10733.000    0.0062000000
       10734.000    0.0034000000
       10735.000   -0.0021000000
       10737.000   -0.0079000000
       10738.000    -0.011200000
       10739.000    -0.010000000
       10740.000   -0.0050000000
       10741.000    0.0018000000
       10742.000    0.0077000000
       10743.000     0.010700000
       10745.000    0.0099000000
       10746.000    0.0066000000
       10747.000    0.0032000000
       10748.000    0.0020000000
       10749.000    0.0038000000
       10750.000    0.0073000000
       10752.000     0.010000000
       10753.000     0.010300000
       10754.000    0.0092000000
       10755.000    0.0086000000
       10756.000     0.011600000
       10757.000     0.017300000
       10758.000     0.022300000
       10760.000     0.024000000
       10761.000     0.021100000
       10762.000     0.015900000
       10763.000     0.012400000
       10764.000     0.011300000
       10765.000     0.011500000
       10767.000     0.011300000
       10768.000    0.0089000000
       10769.000    0.0056000000
       10770.000    0.0036000000
       10771.000    0.0031000000
       10772.000    0.0041000000
       10774.000    0.0061000000
       10775.000    0.0085000000
       10776.000     0.011200000
       10777.000     0.013700000
       10778.000     0.014800000
       10779.000     0.014700000
       10781.000     0.014500000
       10782.000     0.015800000
       10783.000     0.019500000
       10784.000     0.025000000
       10785.000     0.030300000
       10786.000     0.033500000
       10787.000     0.033900000
       10789.000     0.031600000
       10790.000     0.027500000
       10791.000     0.022600000
       10792.000     0.017300000
       10793.000     0.013300000
       10794.000     0.011800000
       10796.000     0.011700000
       10797.000     0.011500000
       10798.000     0.010900000
       10799.000     0.010500000
       10800.000     0.011800000
       10801.000     0.015600000
       10803.000     0.020100000
       10804.000     0.023100000
       10805.000     0.024000000
       10806.000     0.023200000
       10807.000     0.022700000
       10808.000     0.023600000
       10810.000     0.024600000
       10811.000     0.024500000
       10812.000     0.023700000
       10813.000     0.022700000
       10814.000     0.023000000
       10815.000     0.024500000
       10817.000     0.025200000
       10818.000     0.024300000
       10819.000     0.022600000
       10820.000     0.020900000
       10821.000     0.020600000
       10823.000     0.022200000
       10824.000     0.024800000
       10825.000     0.027800000
       10826.000     0.030500000
       10827.000     0.031700000
       10828.000     0.030900000
       10830.000     0.028600000
       10831.000     0.025900000
       10832.000     0.023500000
       10833.000     0.021800000
       10834.000     0.019900000
       10835.000     0.017500000
       10837.000     0.015800000
       10838.000     0.016100000
       10839.000     0.019500000
       10840.000     0.025200000
       10841.000     0.030000000
       10842.000     0.032300000
       10844.000     0.033800000
       10845.000     0.036300000
       10846.000     0.041100000
       10847.000     0.046700000
       10848.000     0.049200000
       10850.000     0.047900000
       10851.000     0.044800000
       10852.000     0.042500000
       10853.000     0.043200000
       10854.000     0.045900000
       10855.000     0.047800000
       10857.000     0.049000000
       10858.000     0.051400000
       10859.000     0.055200000
       10860.000     0.060100000
       10861.000     0.063200000
       10862.000     0.062000000
       10864.000     0.058100000
       10865.000     0.053900000
       10866.000     0.051300000
       10867.000     0.051100000
       10868.000     0.052000000
       10870.000     0.052700000
       10871.000     0.054300000
       10872.000     0.057600000
       10873.000     0.062300000
       10874.000     0.067400000
       10875.000     0.070300000
       10877.000     0.070400000
       10878.000     0.068600000
       10879.000     0.066700000
       10880.000     0.065800000
       10881.000     0.066900000
       10883.000     0.069900000
       10884.000     0.073700000
       10885.000     0.076900000
       10886.000     0.078500000
       10887.000     0.078600000
       10889.000     0.077500000
       10890.000     0.076100000
       10891.000     0.074900000
       10892.000     0.074200000
       10893.000     0.074500000
       10894.000     0.075900000
       10896.000     0.079000000
       10897.000     0.083600000
       10898.000     0.086800000
       10899.000     0.086600000
       10900.000     0.083400000
       10902.000     0.079500000
       10903.000     0.077900000
       10904.000     0.080200000
       10905.000     0.085100000
       10906.000     0.090900000
       10908.000     0.095900000
       10909.000      0.10010000
       10910.000      0.10510000
       10911.000      0.11110000
       10912.000      0.11640000
       10913.000      0.12010000
       10915.000      0.12170000
       10916.000      0.12200000
       10917.000      0.12240000
       10918.000      0.12370000
       10919.000      0.12610000
       10921.000      0.12960000
       10922.000      0.13350000
       10923.000      0.13630000
       10924.000      0.13680000
       10925.000      0.13520000
       10927.000      0.13250000
       10928.000      0.13080000
       10929.000      0.13160000
       10930.000      0.13410000
       10931.000      0.13680000
       10933.000      0.13960000
       10934.000      0.14230000
       10935.000      0.14530000
       10936.000      0.14820000
       10937.000      0.14950000
       10939.000      0.14890000
       10940.000      0.14840000
       10941.000      0.14990000
       10942.000      0.15450000
       10943.000      0.16150000
       10945.000      0.16750000
       10946.000      0.17230000
       10947.000      0.17740000
       10948.000      0.18420000
       10949.000      0.19330000
       10951.000      0.20250000
       10952.000      0.20820000
       10953.000      0.20930000
       10954.000      0.20670000
       10955.000      0.20250000
       10957.000      0.19900000
       10958.000      0.19820000
       10959.000      0.20050000
       10960.000      0.20490000
       10961.000      0.20990000
       10963.000      0.21240000
       10964.000      0.21150000
       10965.000      0.20930000
       10966.000      0.20880000
       10967.000      0.21210000
       10969.000      0.21930000
       10970.000      0.22750000
       10971.000      0.23440000
       10972.000      0.23980000
       10973.000      0.24390000
       10975.000      0.24660000
       10976.000      0.24820000
       10977.000      0.24900000
       10978.000      0.25060000
       10979.000      0.25550000
       10981.000      0.26300000
       10982.000      0.26990000
       10983.000      0.27350000
       10984.000      0.27240000
       10985.000      0.26920000
       10987.000      0.26840000
       10988.000      0.26980000
       10989.000      0.27150000
       10990.000      0.27310000
       10991.000      0.27500000
       10993.000      0.28020000
       10994.000      0.29040000
       10995.000      0.30160000
       10996.000      0.30960000
       10997.000      0.31370000
       10999.000      0.31510000
       11000.000      0.31790000
       11001.000      0.32370000
       11002.000      0.32780000
       11004.000      0.32770000
       11005.000      0.32470000
       11006.000      0.32160000
       11007.000      0.32170000
       11008.000      0.32540000
       11010.000      0.32900000
       11011.000      0.33140000
       11012.000      0.33420000
       11013.000      0.33900000
       11014.000      0.34700000
       11016.000      0.35670000
       11017.000      0.36450000
       11018.000      0.36970000
       11019.000      0.37340000
       11020.000      0.37570000
       11022.000      0.37680000
       11023.000      0.37780000
       11024.000      0.37960000
       11025.000      0.38340000
       11027.000      0.38950000
       11028.000      0.39440000
       11029.000      0.39570000
       11030.000      0.39500000
       11031.000      0.39460000
       11033.000      0.39690000
       11034.000      0.40200000
       11035.000      0.40580000
       11036.000      0.40670000
       11038.000      0.40710000
       11039.000      0.40940000
       11040.000      0.41500000
       11041.000      0.42260000
       11042.000      0.42730000
       11044.000      0.42820000
       11045.000      0.42820000
       11046.000      0.42900000
       11047.000      0.43110000
       11049.000      0.43380000
       11050.000      0.43490000
       11051.000      0.43680000
       11052.000      0.44260000
       11053.000      0.45120000
       11055.000      0.45960000
       11056.000      0.46450000
       11057.000      0.46390000
       11058.000      0.46050000
       11060.000      0.45790000
       11061.000      0.45620000
       11062.000      0.45530000
       11063.000      0.45580000
       11064.000      0.45840000
       11066.000      0.46470000
       11067.000      0.47430000
       11068.000      0.48380000
       11069.000      0.49070000
       11071.000      0.49570000
       11072.000      0.49890000
       11073.000      0.50030000
       11074.000      0.49990000
       11075.000      0.49690000
       11077.000      0.49310000
       11078.000      0.49230000
       11079.000      0.49470000
       11080.000      0.49820000
       11082.000      0.50020000
       11083.000      0.49870000
       11084.000      0.49620000
       11085.000      0.49690000
       11086.000      0.50070000
       11088.000      0.50550000
       11089.000      0.50980000
       11090.000      0.51180000
       11091.000      0.51310000
       11093.000      0.51560000
       11094.000      0.51720000
       11095.000      0.51650000
       11096.000      0.51430000
       11098.000      0.51230000
       11099.000      0.51290000
       11100.000      0.51680000
       11101.000      0.52150000
       11102.000      0.52490000
       11104.000      0.52750000
       11105.000      0.52950000
       11106.000      0.53110000
       11107.000      0.53220000
       11109.000      0.53130000
       11110.000      0.52960000
       11111.000      0.52990000
       11112.000      0.53170000
       11114.000      0.53270000
       11115.000      0.53150000
       11116.000      0.52830000
       11117.000      0.52600000
       11119.000      0.52810000
       11120.000      0.53300000
       11121.000      0.53750000
       11122.000      0.54060000
       11123.000      0.54250000
       11125.000      0.54540000
       11126.000      0.55060000
       11127.000      0.55430000
       11128.000      0.55330000
       11130.000      0.54940000
       11131.000      0.54530000
       11132.000      0.54480000
       11133.000      0.54920000
       11135.000      0.55480000
       11136.000      0.55830000
       11137.000      0.55990000
       11138.000      0.55990000
       11140.000      0.55950000
       11141.000      0.55890000
       11142.000      0.55740000
       11143.000      0.55580000
       11145.000      0.55610000
       11146.000      0.55780000
       11147.000      0.55860000
       11148.000      0.55850000
       11150.000      0.55840000
       11151.000      0.55940000
       11152.000      0.56310000
       11153.000      0.56610000
       11154.000      0.56470000
       11156.000      0.56080000
       11157.000      0.55760000
       11158.000      0.55800000
       11159.000      0.56330000
       11161.000      0.56830000
       11162.000      0.56840000
       11163.000      0.56550000
       11164.000      0.56210000
       11166.000      0.55930000
       11167.000      0.55750000
       11168.000      0.55390000
       11169.000      0.54930000
       11171.000      0.54990000
       11172.000      0.55760000
       11173.000      0.56960000
       11174.000      0.58070000
       11176.000      0.58450000
       11177.000      0.58210000
       11178.000      0.58100000
       11179.000      0.58300000
       11181.000      0.58490000
       11182.000      0.58360000
       11183.000      0.57620000
       11184.000      0.56690000
       11186.000      0.56290000
       11187.000      0.56410000
       11188.000      0.56750000
       11189.000      0.57050000
       11191.000      0.57150000
       11192.000      0.57330000
       11193.000      0.57880000
       11194.000      0.58430000
       11196.000      0.58700000
       11197.000      0.58740000
       11198.000      0.58710000
       11199.000      0.58890000
       11201.000      0.59290000
       11202.000      0.59420000
       11203.000      0.59060000
       11204.000      0.58520000
       11206.000      0.58060000
       11207.000      0.57850000
       11208.000      0.57860000
       11210.000      0.57850000
       11211.000      0.57870000
       11212.000      0.58260000
       11213.000      0.58930000
       11215.000      0.59560000
       11216.000      0.59830000
       11217.000      0.59530000
       11218.000      0.59020000
       11220.000      0.58900000
       11221.000      0.59130000
       11222.000      0.59420000
       11223.000      0.59560000
       11225.000      0.59390000
       11226.000      0.59160000
       11227.000      0.59110000
       11228.000      0.59010000
       11230.000      0.58680000
       11231.000      0.58300000
       11232.000      0.58030000
       11233.000      0.58070000
       11235.000      0.58410000
       11236.000      0.58650000
       11237.000      0.58620000
       11238.000      0.58580000
       11240.000      0.58610000
       11241.000      0.58590000
       11242.000      0.58390000
       11244.000      0.57810000
       11245.000      0.57120000
       11246.000      0.56870000
       11247.000      0.57070000
       11249.000      0.57380000
       11250.000      0.57540000
       11251.000      0.57410000
       11252.000      0.57370000
       11254.000      0.57910000
       11255.000      0.58740000
       11256.000      0.59330000
       11257.000      0.59400000
       11259.000      0.58950000
       11260.000      0.58530000
       11261.000      0.58670000
       11263.000      0.59110000
       11264.000      0.59490000
       11265.000      0.59750000
       11266.000      0.59860000
       11268.000      0.60030000
       11269.000      0.60250000
       11270.000      0.60090000
       11271.000      0.59450000
       11273.000      0.58710000
       11274.000      0.58190000
       11275.000      0.58070000
       11276.000      0.58260000
       11278.000      0.58380000
       11279.000      0.58390000
       11280.000      0.58600000
       11282.000      0.59010000
       11283.000      0.59480000
       11284.000      0.59790000
       11285.000      0.59740000
       11287.000      0.59590000
       11288.000      0.59740000
       11289.000      0.60030000
       11291.000      0.60150000
       11292.000      0.59960000
       11293.000      0.59480000
       11294.000      0.59100000
       11296.000      0.59170000
       11297.000      0.59380000
       11298.000      0.59440000
       11299.000      0.59330000
       11301.000      0.59170000
       11302.000      0.59220000
       11303.000      0.59590000
       11305.000      0.59930000
       11306.000      0.60080000
       11307.000      0.60240000
       11308.000      0.60460000
       11310.000      0.60680000
       11311.000      0.60750000
       11312.000      0.60420000
       11313.000      0.59860000
       11315.000      0.59570000
       11316.000      0.59650000
       11317.000      0.59890000
       11319.000      0.60030000
       11320.000      0.59850000
       11321.000      0.59620000
       11322.000      0.59810000
       11324.000      0.60310000
       11325.000      0.60800000
       11326.000      0.61070000
       11328.000      0.60980000
       11329.000      0.60810000
       11330.000      0.60840000
       11331.000      0.60860000
       11333.000      0.60640000
       11334.000      0.60300000
       11335.000      0.59980000
       11337.000      0.59870000
       11338.000      0.60030000
       11339.000      0.60220000
       11340.000      0.60360000
       11342.000      0.60720000
       11343.000      0.61350000
       11344.000      0.62050000
       11346.000      0.62510000
       11347.000      0.62320000
       11348.000      0.61680000
       11349.000      0.61220000
       11351.000      0.61080000
       11352.000      0.61010000
       11353.000      0.60820000
       11355.000      0.60350000
       11356.000      0.59950000
       11357.000      0.60100000
       11358.000      0.60610000
       11360.000      0.61060000
       11361.000      0.61230000
       11362.000      0.61030000
       11364.000      0.60870000
       11365.000      0.61120000
       11366.000      0.61440000
       11368.000      0.61490000
       11369.000      0.61280000
       11370.000      0.60890000
       11371.000      0.60620000
       11373.000      0.60590000
       11374.000      0.60450000
       11375.000      0.60170000
       11377.000      0.60090000
       11378.000      0.60410000
       11379.000      0.61140000
       11380.000      0.61990000
       11382.000      0.62450000
       11383.000      0.62450000
       11384.000      0.62380000
       11386.000      0.62310000
       11387.000      0.62140000
       11388.000      0.61830000
       11390.000      0.61340000
       11391.000      0.61080000
       11392.000      0.61480000
       11393.000      0.62210000
       11395.000      0.62680000
       11396.000      0.62710000
       11397.000      0.62320000
       11399.000      0.61970000
       11400.000      0.62060000
       11401.000      0.62150000
       11403.000      0.61860000
       11404.000      0.61310000
       11405.000      0.60760000
       11406.000      0.60700000
       11408.000      0.61270000
       11409.000      0.61920000
       11410.000      0.62290000
       11412.000      0.62520000
       11413.000      0.62700000
       11414.000      0.62940000
       11416.000      0.63120000
       11417.000      0.62820000
       11418.000      0.62170000
       11419.000      0.61710000
       11421.000      0.61610000
       11422.000      0.61790000
       11423.000      0.61970000
       11425.000      0.61830000
       11426.000      0.61580000
       11427.000      0.61690000
       11429.000      0.61980000
       11430.000      0.62160000
       11431.000      0.62080000
       11432.000      0.61740000
